eps1   sigma3   sigma3'   sigma1   sigma1'   u       p       q
[%]    [kPa]    [kPa]     [kPa]    [kPa]     [kPa]   [kPa]   [kPa]

0.0000	999.053	498.054	999.759	498.759	501.000	498.289	0.705
0.0063	999.033	497.072	1002.209	500.248	501.961	498.131	3.176
0.0240	999.023	493.256	1012.511	506.745	505.767	497.752	13.489
0.0593	999.003	484.532	1032.638	518.167	514.471	495.744	33.635
0.0977	998.972	472.498	1053.192	526.718	526.474	490.571	54.220
0.1418	999.043	457.752	1073.593	532.301	541.291	482.602	74.549
0.1906	999.175	441.053	1093.660	535.538	558.123	472.548	94.485
0.2334	999.104	423.331	1112.792	537.019	575.774	461.227	113.688
0.2791	999.074	404.070	1132.184	537.180	595.003	448.440	133.110
0.3271	999.084	384.183	1150.648	535.747	614.901	434.704	151.564
0.3778	999.094	363.384	1167.476	531.766	635.710	419.511	168.382
0.4162	999.043	342.585	1181.203	524.745	656.458	403.305	182.160
0.4630	999.043	321.594	1191.860	514.411	677.449	385.866	192.817
0.5074	999.043	301.382	1198.886	501.226	697.661	367.997	199.843
0.5588	998.982	282.365	1203.136	486.519	716.617	350.416	204.154
0.6116	998.952	264.531	1205.015	470.594	734.420	333.219	206.063
0.6587	998.992	248.399	1205.295	454.702	750.594	317.166	206.303
0.7092	998.901	233.176	1204.084	438.360	765.724	301.571	205.184
0.7553	998.870	219.594	1201.954	422.678	779.277	287.288	203.084
0.8060	998.921	207.145	1199.281	407.505	791.776	273.932	200.359
0.8511	998.911	195.739	1195.846	392.674	803.172	261.384	196.935
0.9039	999.186	185.589	1192.577	378.980	813.597	250.052	193.391
0.9566	999.155	176.146	1188.687	365.677	823.009	239.323	189.532
1.0081	999.104	167.482	1184.598	352.975	831.622	229.313	185.494
1.0579	999.033	159.435	1180.393	340.795	839.598	219.889	181.360
1.1108	998.931	152.117	1176.202	329.388	846.814	211.208	177.271
1.1648	999.003	145.489	1172.269	318.754	853.514	203.244	173.266
1.2218	999.013	139.335	1168.214	308.537	859.678	195.736	169.202
1.2729	998.962	133.606	1164.392	299.037	865.356	188.750	165.430
1.3321	998.942	128.283	1160.497	289.838	870.659	182.134	161.555
1.3809	998.931	123.374	1156.784	281.226	875.558	175.991	157.853
1.4410	998.891	118.688	1153.068	272.864	880.203	170.080	154.177
1.4889	998.891	114.396	1149.517	265.022	884.494	164.605	150.626
1.5407	998.799	110.196	1145.997	257.393	888.604	159.262	147.198
1.5953	998.820	106.441	1142.642	250.263	892.379	154.382	143.822
1.6511	998.779	102.787	1139.438	243.446	895.992	149.673	140.659
1.7021	999.043	99.388	1136.464	236.808	899.656	145.194	137.421
1.7540	999.033	96.230	1133.532	230.729	902.803	141.063	134.499
1.8041	999.074	93.204	1130.593	224.723	905.870	137.044	131.520
1.8530	999.023	90.349	1127.740	219.066	908.674	133.255	128.717
1.9085	998.962	87.586	1124.917	213.541	911.376	129.571	125.955
1.9621	998.962	84.995	1122.211	208.245	913.967	126.078	123.249
2.0144	998.972	82.637	1119.746	203.411	916.335	122.895	120.774
2.0659	998.931	80.279	1117.148	198.495	918.653	119.684	118.217
2.1217	998.911	78.082	1114.763	193.934	920.829	116.699	115.852
2.1708	998.799	75.855	1112.236	189.291	922.944	113.667	113.436
2.2235	998.881	73.922	1110.085	185.127	924.958	110.990	111.204
2.2818	998.840	71.928	1107.736	180.825	926.912	108.227	108.896
2.3352	998.860	70.177	1105.616	176.933	928.683	105.763	106.756
2.3872	998.809	68.366	1103.480	173.037	930.444	103.256	104.671
2.4373	998.799	66.665	1101.361	169.227	932.134	100.852	102.561
2.4872	999.053	65.118	1099.734	165.799	933.936	98.678	100.681
2.5403	999.023	63.407	1097.762	162.146	935.616	96.320	98.739
2.5923	999.003	61.950	1095.848	158.795	937.053	94.231	96.845
2.6450	998.931	60.502	1093.986	155.557	938.429	92.187	95.055
2.7045	998.931	59.116	1092.199	152.383	939.816	90.205	93.267
2.7576	998.921	57.790	1090.537	149.406	941.132	88.328	91.616
2.8041	998.881	56.524	1088.890	146.533	942.356	86.527	90.009
2.8573	998.748	55.279	1087.152	143.682	943.469	84.747	88.403
2.9121	998.891	54.166	1085.754	141.030	944.725	83.121	86.864
2.9644	998.962	52.992	1084.303	138.334	945.969	81.440	85.341
3.0137	999.003	51.950	1082.910	135.858	947.052	79.919	83.908
3.0679	998.931	50.837	1081.376	133.281	948.095	78.318	82.444
3.1250	998.921	49.835	1080.004	130.917	949.087	76.862	81.083
3.1684	998.942	48.914	1078.688	128.661	950.028	75.496	79.747
3.2222	998.881	47.952	1077.329	126.400	950.929	74.101	78.448
3.2722	998.911	47.041	1076.011	124.141	951.870	72.741	77.100
3.3226	998.789	46.028	1074.646	121.885	952.761	71.314	75.857
3.3712	998.759	45.117	1073.394	119.753	953.641	69.996	74.636
3.4257	998.789	44.308	1072.240	117.759	954.481	68.792	73.451
3.4803	998.769	43.458	1071.081	115.770	955.311	67.562	72.312
3.5308	998.759	42.709	1069.940	113.890	956.050	66.436	71.181
3.5811	998.769	42.010	1068.901	112.142	956.758	65.388	70.132
3.6362	998.718	41.211	1067.701	110.193	957.507	64.205	68.983
3.6860	998.738	40.532	1066.738	108.532	958.206	63.199	68.000
3.7362	998.972	39.805	1065.928	106.760	959.167	62.123	66.956
3.7900	998.881	39.076	1064.816	105.011	959.805	61.054	65.935
3.8412	998.952	38.499	1063.949	103.497	960.453	60.165	64.998
3.8906	998.931	37.841	1062.963	101.873	961.090	59.185	64.032
3.9457	998.840	37.163	1061.970	100.293	961.677	58.206	63.130
3.9972	998.820	36.535	1061.015	98.731	962.284	57.267	62.196
4.0490	998.789	35.928	1060.116	97.254	962.861	56.370	61.327
4.0994	998.820	35.452	1059.294	95.927	963.367	55.610	60.475
4.1513	998.799	34.895	1058.414	94.510	963.904	54.767	59.615
4.2101	998.789	34.389	1057.545	93.145	964.400	53.975	58.756
4.2621	998.779	33.833	1056.715	91.769	964.946	53.145	57.936
4.3146	998.779	33.357	1055.898	90.476	965.422	52.396	57.119
4.3650	998.748	32.841	1055.058	89.150	965.908	51.610	56.309
4.4149	998.759	32.436	1054.373	88.051	966.323	50.974	55.615
4.4687	998.687	31.889	1053.515	86.717	966.798	50.165	54.828
4.5165	998.870	31.404	1052.985	85.519	967.466	49.442	54.115
4.5708	998.891	30.949	1052.307	84.365	967.942	48.754	53.416
4.6226	998.901	30.544	1051.623	83.266	968.357	48.118	52.722
4.6724	998.870	30.119	1050.975	82.224	968.752	47.487	52.105
4.7277	998.820	29.633	1050.175	80.988	969.187	46.751	51.355
4.7929	998.809	29.258	1049.531	79.980	969.551	46.165	50.722
4.8309	998.809	28.904	1048.879	78.974	969.906	45.594	50.070
4.8898	998.809	28.539	1048.256	77.987	970.270	45.022	49.447
4.9371	998.779	28.114	1047.614	76.949	970.665	44.392	48.835
4.9856	998.779	27.760	1046.992	75.973	971.019	43.831	48.213
5.0406	998.738	27.375	1046.365	75.002	971.363	43.251	47.626
5.0905	998.657	26.980	1045.726	74.049	971.677	42.670	47.069
5.1430	998.687	26.677	1045.184	73.173	972.011	42.175	46.496
5.1938	998.667	26.332	1044.571	72.237	972.335	41.634	45.904
5.2421	998.647	25.968	1044.043	71.365	972.679	41.100	45.397
5.2933	998.799	25.695	1043.588	70.484	973.104	40.625	44.789
5.3426	998.830	25.311	1043.104	69.585	973.519	40.069	44.274
5.3961	998.870	25.048	1042.617	68.795	973.822	39.630	43.747
5.4488	998.860	24.734	1042.090	67.964	974.126	39.144	43.230
5.5022	998.799	24.400	1041.517	67.117	974.399	38.639	42.717
5.5523	998.820	24.117	1041.034	66.331	974.703	38.188	42.214
5.6031	998.799	23.843	1040.521	65.566	974.956	37.751	41.722
5.6559	998.779	23.529	1039.981	64.731	975.249	37.263	41.202
5.7160	998.728	23.185	1039.484	63.941	975.543	36.770	40.756
5.7643	998.759	22.973	1039.070	63.284	975.786	36.410	40.312
5.8170	998.728	22.689	1038.498	62.460	976.039	35.946	39.770
5.8687	998.687	22.416	1038.026	61.754	976.272	35.529	39.339
5.9214	998.667	22.163	1037.548	61.044	976.504	35.123	38.881
5.9692	998.667	21.930	1037.091	60.354	976.737	34.738	38.424
6.0273	998.657	21.626	1036.644	59.613	977.031	34.289	37.987
6.0735	998.667	21.353	1036.204	58.890	977.314	33.865	37.537
6.1287	998.881	21.141	1036.004	58.265	977.739	33.516	37.123
6.1803	998.850	20.908	1035.563	57.622	977.942	33.146	36.713
6.2333	998.820	20.675	1035.089	56.945	978.144	32.765	36.269
6.2881	998.789	20.422	1034.678	56.311	978.367	32.385	35.889
6.3361	998.738	20.179	1034.176	55.617	978.559	31.992	35.438
6.3948	998.728	19.987	1033.761	55.020	978.741	31.664	35.033
6.4444	998.759	19.795	1033.434	54.470	978.964	31.353	34.676
6.4998	998.687	19.551	1032.963	53.827	979.136	30.977	34.276
6.5472	998.697	19.349	1032.584	53.236	979.348	30.645	33.887
6.6012	998.667	19.157	1032.172	52.662	979.510	30.325	33.505
6.6528	998.616	18.893	1031.721	51.998	979.723	29.928	33.105
6.7044	998.657	18.762	1031.420	51.525	979.895	29.683	32.764
6.7541	998.606	18.478	1030.983	50.855	980.128	29.271	32.377
6.8073	998.555	18.255	1030.562	50.262	980.300	28.924	32.007
6.8595	998.555	18.083	1030.164	49.693	980.472	28.620	31.609
6.9085	998.809	17.872	1030.026	49.089	980.937	28.278	31.217
6.9607	998.809	17.690	1029.682	48.562	981.120	27.980	30.872
7.0135	998.799	17.518	1029.195	47.914	981.282	27.650	30.396
7.0672	998.769	17.234	1028.613	47.079	981.535	27.182	29.845
7.1229	998.769	17.082	1028.243	46.557	981.686	26.907	29.474
7.1752	998.677	16.778	1027.666	45.767	981.899	26.441	28.989
7.2310	998.708	16.647	1027.327	45.266	982.061	26.187	28.619
7.2812	998.697	16.505	1026.992	44.799	982.192	25.936	28.294
7.3301	998.616	16.191	1026.387	43.962	982.425	25.448	27.771
7.3833	998.606	15.978	1025.812	43.185	982.628	25.047	27.206
7.4421	998.616	15.756	1025.106	42.245	982.860	24.586	26.490
7.4903	998.555	15.563	1024.753	41.761	982.992	24.296	26.198
7.5421	998.606	15.493	1024.486	41.373	983.113	24.119	25.880
7.5964	998.565	15.249	1023.835	40.519	983.316	23.673	25.270
7.6503	998.545	14.986	1023.325	39.766	983.559	23.246	24.780
7.7025	998.769	14.754	1022.925	38.911	984.014	22.807	24.157
7.7551	998.779	14.532	1022.465	38.218	984.247	22.427	23.686
7.8073	998.738	14.289	1021.828	37.379	984.449	21.985	23.090
7.8633	998.738	12.315	1016.961	30.537	986.423	18.389	18.222
7.9158	998.667	12.345	1016.903	30.581	986.322	18.424	18.236
7.9719	998.687	12.416	1016.797	30.526	986.271	18.453	18.109
8.0265	998.687	12.376	1016.702	30.390	986.312	18.380	18.015
8.0756	998.667	12.274	1016.354	29.961	986.393	18.170	17.687
8.1247	998.626	12.163	1016.127	29.663	986.464	17.996	17.500
8.1795	998.616	12.072	1015.803	29.259	986.544	17.801	17.187
8.2348	998.596	12.001	1015.541	28.946	986.595	17.649	16.945
8.2837	998.555	11.889	1015.300	28.634	986.666	17.471	16.744
8.3357	998.575	11.808	1015.077	28.310	986.767	17.309	16.502
8.3916	998.555	11.667	1014.774	27.885	986.889	17.073	16.218
8.4419	998.545	11.596	1014.469	27.519	986.949	16.904	15.924
8.4974	998.697	11.505	1014.428	27.236	987.192	16.749	15.730
8.5517	998.769	11.435	1014.312	26.978	987.334	16.616	15.543
8.6053	998.820	11.273	1013.757	26.211	987.546	16.252	14.938
8.6526	998.697	11.030	1013.263	25.595	987.668	15.885	14.565
8.7031	998.657	10.898	1013.020	25.261	987.759	15.685	14.363
8.7533	998.626	10.817	1012.851	25.041	987.810	15.558	14.224
8.8035	998.626	10.776	1012.703	24.853	987.850	15.469	14.077
8.8568	998.667	10.716	1012.431	24.480	987.951	15.304	13.764
8.9029	998.575	10.594	1012.226	24.244	987.982	15.144	13.651
8.9573	998.596	10.564	1012.119	24.087	988.032	15.071	13.523
9.0054	998.575	10.462	1011.802	23.689	988.113	14.871	13.226
9.0610	998.494	10.310	1011.582	23.398	988.184	14.673	13.088
9.1127	998.565	10.310	1011.550	23.295	988.255	14.639	12.985
9.1686	998.535	10.199	1011.402	23.066	988.336	14.488	12.867
9.2160	998.504	10.158	1011.254	22.908	988.346	14.408	12.750
9.2711	998.657	10.139	1011.284	22.766	988.518	14.348	12.627
9.3197	998.718	10.007	1011.241	22.530	988.710	14.182	12.523
9.3716	998.759	10.058	1011.150	22.450	988.700	14.189	12.391
9.4265	998.718	10.007	1010.992	22.281	988.710	14.099	12.274
9.4733	998.626	9.855	1010.781	22.010	988.771	13.907	12.154
9.5213	998.677	9.876	1010.721	21.919	988.801	13.890	12.044
9.5757	998.667	9.835	1010.606	21.774	988.832	13.815	11.939
9.6247	998.626	9.754	1010.394	21.521	988.872	13.676	11.767
9.6764	998.525	9.622	1010.187	21.284	988.903	13.509	11.662
9.7291	998.575	9.602	1010.130	21.157	988.974	13.454	11.555
9.7795	998.586	9.582	1010.023	21.019	989.004	13.394	11.437
9.8322	998.565	9.582	1009.895	20.912	988.984	13.358	11.330
9.8837	998.535	9.490	1009.740	20.696	989.044	13.226	11.205
9.9341	998.484	9.379	1009.556	20.451	989.105	13.069	11.072
9.9857	998.423	9.257	1009.324	20.158	989.166	12.891	10.901
10.0377	998.535	9.268	1009.313	20.046	989.267	12.861	10.778
10.0887	998.738	9.238	1009.401	19.902	989.500	12.793	10.663
10.1457	998.687	9.137	1009.229	19.679	989.550	12.651	10.542
10.1958	998.677	9.066	1009.110	19.499	989.611	12.544	10.433
10.2482	998.667	9.015	1008.994	19.342	989.652	12.458	10.327
10.3026	998.575	8.863	1008.789	19.077	989.712	12.268	10.214
10.3526	998.636	8.954	1008.736	19.054	989.682	12.321	10.099
10.4012	998.586	8.853	1008.569	18.836	989.733	12.181	9.983
10.4552	998.596	8.792	1008.416	18.613	989.803	12.066	9.821
10.5077	998.555	8.742	1008.260	18.446	989.814	11.976	9.704
10.5626	998.575	8.691	1008.178	18.294	989.884	11.892	9.603
10.6101	998.484	8.600	1007.978	18.094	989.884	11.764	9.494
10.6612	998.535	8.620	1007.937	18.022	989.915	11.754	9.402
10.7069	998.494	8.539	1007.788	17.833	989.955	11.637	9.294
10.7647	998.484	8.498	1007.682	17.696	989.986	11.564	9.198
10.8131	998.474	8.448	1007.569	17.543	990.026	11.479	9.095
10.8613	998.657	8.337	1007.664	17.344	990.320	11.340	9.007
10.9147	998.657	8.327	1007.573	17.244	990.330	11.299	8.917
10.9640	998.626	8.266	1007.430	17.070	990.360	11.201	8.804
11.0128	998.575	8.145	1007.275	16.844	990.431	11.044	8.700
11.0679	998.504	8.063	1007.070	16.629	990.441	10.918	8.565
11.1175	998.575	8.104	1007.034	16.562	990.471	10.923	8.458
11.1707	998.626	8.094	1006.966	16.434	990.532	10.874	8.340
11.2227	998.626	8.033	1006.845	16.252	990.593	10.773	8.219
11.2774	998.555	7.942	1006.643	16.030	990.613	10.638	8.088
