eps1   sigma3   sigma3'   sigma1   sigma1'   u       p       q
[%]    [kPa]    [kPa]     [kPa]    [kPa]     [kPa]   [kPa]   [kPa]

0.0000	800.092	299.646	803.016	302.570	500.446	300.621	2.924
0.0139	799.973	292.347	821.448	313.822	507.626	299.505	21.475
0.0207	800.062	287.970	829.306	317.214	512.092	297.718	29.244
0.0416	800.151	276.808	851.424	328.080	523.343	293.899	51.272
0.0727	800.290	260.825	874.897	335.432	539.465	285.694	74.607
0.1071	799.824	241.715	895.310	337.201	558.109	273.543	95.486
0.1492	799.903	222.512	911.427	334.037	577.391	259.687	111.524
0.1917	800.082	204.827	922.668	327.413	595.255	245.689	122.586
0.2345	800.161	188.106	930.129	318.074	612.056	231.428	129.968
0.2797	799.864	173.225	933.881	307.243	626.639	217.898	134.018
0.3329	799.983	160.463	936.267	296.747	639.520	205.891	136.285
0.3832	800.082	149.260	936.870	286.048	650.822	194.856	136.788
0.4340	800.211	139.596	936.829	276.215	660.615	185.136	136.619
0.4869	800.032	130.759	935.627	266.354	669.273	175.957	135.595
0.5388	799.973	123.226	934.206	257.459	676.747	167.970	134.233
0.5938	800.191	116.730	932.827	249.366	683.461	160.942	132.636
0.6473	800.350	111.106	931.222	241.978	689.244	154.730	130.872
0.7025	799.983	105.433	929.155	234.605	694.550	148.490	129.173
0.7554	800.003	100.774	927.215	227.986	699.229	143.178	127.212
0.8076	800.132	96.710	925.675	222.253	703.421	138.558	125.543
0.8580	800.141	92.933	923.956	216.747	707.209	134.204	123.814
0.9111	800.102	89.571	922.186	211.655	710.531	130.266	122.084
0.9652	800.072	86.351	920.548	206.827	713.721	126.510	120.476
1.0185	800.171	83.645	919.187	202.661	716.526	123.317	119.016
1.0711	800.330	81.151	917.891	198.711	719.179	120.338	117.561
1.1207	800.310	78.741	916.450	194.881	721.569	117.454	116.140
1.1719	799.893	76.157	914.732	190.995	723.736	114.437	114.838
1.2236	800.132	74.410	913.661	187.940	725.721	112.254	113.530
1.2752	800.241	72.687	912.669	185.115	727.554	110.163	112.428
1.3287	800.191	70.875	911.486	182.170	729.316	107.973	111.295
1.3795	799.943	69.088	910.190	179.334	730.855	105.836	110.247
1.4344	800.082	67.778	909.390	177.087	732.304	104.214	109.309
1.4864	800.132	66.501	908.513	174.883	733.630	102.629	108.382
1.5360	800.102	65.206	907.635	172.739	734.896	101.050	107.533
1.5877	800.022	63.921	906.692	170.591	736.101	99.478	106.670
1.6404	800.032	62.847	905.996	168.812	737.185	98.169	105.964
1.6932	800.141	61.954	905.427	167.239	738.187	97.049	105.285
1.7421	800.141	61.002	904.713	165.574	739.139	95.859	104.572
1.7910	799.983	59.962	903.970	163.950	740.020	94.625	103.987
1.8438	799.943	59.052	903.307	162.416	740.891	93.506	103.364
1.8942	799.983	58.291	902.851	161.159	741.691	92.581	102.868
1.9435	799.923	57.513	902.243	159.833	742.410	91.619	102.320
1.9950	799.903	56.804	901.883	158.784	743.099	90.797	101.979
2.0508	799.893	56.156	901.345	157.608	743.737	89.973	101.451
2.1042	799.903	55.518	900.950	156.565	744.385	89.200	101.046
2.1590	799.903	54.961	900.510	155.568	744.942	88.497	100.607
2.2081	799.923	54.424	900.249	154.750	745.499	87.866	100.326
2.2596	800.042	54.006	900.092	154.056	746.036	87.356	100.050
2.3149	800.141	53.539	899.841	153.238	746.603	86.772	99.700
2.3651	800.181	53.072	899.687	152.578	747.109	86.241	99.506
2.4162	800.082	52.557	899.306	151.781	747.525	85.632	99.224
2.4670	800.072	52.132	899.097	151.157	747.940	85.141	99.025
2.5177	800.082	51.737	898.963	150.618	748.345	84.698	98.881
2.5656	800.092	51.362	898.797	150.068	748.730	84.264	98.706
2.6166	800.102	51.048	898.660	149.606	749.054	83.901	98.558
2.6691	800.092	50.694	898.503	149.105	749.398	83.498	98.411
2.7220	800.092	50.410	898.411	148.730	749.682	83.183	98.319
2.7725	800.032	50.057	898.312	148.336	749.975	82.817	98.279
2.8257	800.032	49.743	898.177	147.888	750.289	82.458	98.145
2.8794	800.062	49.499	898.149	147.586	750.563	82.195	98.087
2.9309	800.042	49.226	898.105	147.289	750.816	81.914	98.062
2.9818	800.012	49.014	898.027	147.029	750.998	81.686	98.015
3.0348	800.052	48.831	898.064	146.844	751.221	81.502	98.012
3.0852	800.122	48.739	898.121	146.739	751.383	81.405	98.000
3.1384	800.191	48.616	898.183	146.608	751.575	81.280	97.992
3.1918	800.042	48.335	898.134	146.427	751.707	81.032	98.091
3.2420	800.032	48.163	898.248	146.379	751.869	80.902	98.216
3.2930	800.072	48.071	898.265	146.265	752.001	80.803	98.193
3.3470	800.072	47.950	898.327	146.205	752.122	80.702	98.255
3.3986	800.022	47.758	898.382	146.118	752.264	80.545	98.360
3.4517	799.983	47.638	898.440	146.095	752.345	80.457	98.457
3.5057	799.953	47.466	898.485	145.998	752.487	80.310	98.532
3.5605	799.913	47.335	898.637	146.059	752.578	80.243	98.723
3.6125	799.913	47.264	898.709	146.060	752.649	80.196	98.796
3.6638	799.903	47.153	898.796	146.046	752.750	80.117	98.892
3.7169	799.943	47.112	899.127	146.295	752.831	80.173	99.184
3.7671	799.983	47.121	899.260	146.399	752.861	80.214	99.277
3.8205	799.993	47.081	899.498	146.586	752.912	80.249	99.506
3.8736	800.102	47.139	899.745	146.782	752.963	80.353	99.643
3.9245	799.983	47.020	899.867	146.904	752.963	80.315	99.884
3.9754	799.874	46.880	899.948	146.955	752.993	80.239	100.075
4.0294	799.943	46.920	900.241	147.217	753.023	80.352	100.297
4.0790	800.003	46.949	900.506	147.452	753.054	80.450	100.503
4.1336	799.963	46.869	900.727	147.633	753.094	80.457	100.764
4.1859	800.003	46.898	901.047	147.942	753.104	80.580	101.044
4.2425	800.012	46.857	901.276	148.121	753.155	80.612	101.263
4.2940	800.003	46.878	901.582	148.457	753.125	80.738	101.579
4.3450	799.993	46.848	901.802	148.657	753.145	80.784	101.809
4.3977	799.943	46.828	902.106	148.991	753.115	80.883	102.163
4.4511	799.953	46.848	902.366	149.261	753.104	80.986	102.413
4.5051	799.963	46.879	902.660	149.576	753.084	81.111	102.697
4.5576	799.963	46.909	902.986	149.932	753.054	81.250	103.023
4.6077	800.112	47.098	903.443	150.430	753.013	81.542	103.331
4.6584	800.141	47.189	903.839	150.887	752.953	81.755	103.698
4.7086	800.231	47.329	904.236	151.334	752.902	81.997	104.005
4.7602	799.993	47.162	904.452	151.621	752.831	81.982	104.460
4.8158	799.963	47.223	904.755	152.015	752.740	82.154	104.793
4.8683	800.122	47.463	905.241	152.582	752.659	82.503	105.119
4.9193	800.201	47.573	905.735	153.106	752.629	82.750	105.534
4.9748	800.092	47.514	905.939	153.361	752.578	82.796	105.847
5.0264	800.012	47.546	906.339	153.872	752.466	82.988	106.326
5.0796	800.012	47.627	906.661	154.276	752.385	83.177	106.648
5.1346	799.963	47.719	907.098	154.854	752.244	83.431	107.135
5.1864	799.953	47.790	907.465	155.302	752.163	83.628	107.512
5.2381	799.933	47.872	907.859	155.797	752.061	83.847	107.926
5.2927	799.953	48.003	908.280	156.330	751.950	84.112	108.327
5.3429	799.973	48.144	908.757	156.929	751.828	84.406	108.785
5.3975	799.953	48.276	909.232	157.556	751.677	84.703	109.279
5.4468	800.052	48.446	909.662	158.056	751.606	84.983	109.610
5.4974	800.171	48.748	910.381	158.958	751.423	85.485	110.210
5.5494	799.834	48.491	910.408	159.066	751.342	85.350	110.574
5.6006	799.903	48.693	910.940	159.729	751.211	85.705	111.037
5.6531	800.022	48.974	911.534	160.485	751.049	86.144	111.511
5.7034	800.082	49.165	912.045	161.128	750.917	86.486	111.963
5.7594	799.864	49.139	912.383	161.659	750.725	86.646	112.520
5.8114	799.854	49.251	912.770	162.167	750.603	86.890	112.917
5.8662	799.883	49.442	913.396	162.955	750.441	87.280	113.513
5.9155	799.903	49.574	913.835	163.505	750.330	87.551	113.931
5.9650	799.874	49.645	914.400	164.172	750.228	87.821	114.527
6.0174	799.854	49.767	914.856	164.770	750.087	88.101	115.003
6.0670	799.913	49.948	915.474	165.509	749.965	88.469	115.561
6.1188	799.963	50.160	916.026	166.223	749.803	88.848	116.063
6.1673	799.993	50.341	916.563	166.912	749.651	89.198	116.570
6.2214	800.092	50.593	917.311	167.812	749.499	89.666	117.219
6.2723	800.181	50.824	917.809	168.452	749.357	90.033	117.628
6.3218	799.993	50.817	918.270	169.095	749.175	90.243	118.277
6.3751	799.943	50.950	918.710	169.717	748.993	90.539	118.767
6.4209	800.072	51.272	919.456	170.656	748.801	91.066	119.384
6.4773	800.132	51.503	920.107	171.478	748.628	91.495	119.975
6.5315	800.052	51.616	920.563	172.127	748.436	91.787	120.511
6.5836	799.983	51.790	921.208	173.015	748.193	92.198	121.226
6.6379	800.022	51.941	921.716	173.634	748.081	92.505	121.693
6.6879	800.003	52.164	922.434	174.596	747.838	92.975	122.432
6.7380	799.983	52.327	922.999	175.343	747.656	93.332	123.016
6.7869	799.963	52.479	923.554	176.070	747.484	93.676	123.591
6.8418	799.953	52.692	924.147	176.885	747.261	94.090	124.194
6.8927	799.983	52.914	924.770	177.701	747.069	94.510	124.787
6.9442	799.983	53.167	925.446	178.631	746.816	94.988	125.464
6.9984	800.072	53.489	926.134	179.551	746.583	95.510	126.062
7.0493	800.151	53.822	926.925	180.596	746.330	96.080	126.774
7.1006	799.883	53.797	927.289	181.203	746.086	96.266	127.406
7.1496	799.923	54.039	927.944	182.060	745.884	96.713	128.021
7.2003	800.062	54.441	928.834	183.213	745.621	97.365	128.772
7.2496	800.052	54.664	929.482	184.095	745.388	97.808	129.430
7.3018	799.933	54.809	930.033	184.909	745.124	98.175	130.100
7.3547	799.953	55.031	930.680	185.759	744.922	98.607	130.728
7.4099	799.953	55.304	931.426	186.778	744.648	99.129	131.474
7.4589	799.953	55.548	932.061	187.656	744.405	99.584	132.108
7.5098	799.883	55.711	932.805	188.633	744.172	100.018	132.922
7.5640	799.854	55.965	933.455	189.566	743.889	100.499	133.602
7.6130	799.854	56.198	934.077	190.421	743.656	100.939	134.224
7.6656	799.874	56.491	934.849	191.467	743.383	101.483	134.976
7.7167	799.923	56.834	935.582	192.494	743.089	102.054	135.659
7.7683	799.983	57.167	936.394	193.578	742.815	102.638	136.411
7.8247	800.022	57.399	937.106	194.483	742.623	103.094	137.083
7.8746	799.864	57.474	937.701	195.311	742.390	103.419	137.838
7.9303	799.983	57.836	938.601	196.454	742.147	104.042	138.619
7.9821	800.062	58.168	939.355	197.461	741.894	104.599	139.293
8.0318	800.042	58.422	940.091	198.470	741.620	105.105	140.048
8.0814	799.953	58.545	940.707	199.300	741.408	105.463	140.754
8.1311	799.993	58.868	941.620	200.496	741.124	106.078	141.628
8.1799	799.993	59.111	942.251	201.370	740.881	106.531	142.258
8.2318	799.993	59.415	943.195	202.618	740.577	107.149	143.202
8.2831	799.963	59.649	943.806	203.492	740.314	107.596	143.843
8.3342	799.993	59.942	944.613	204.562	740.051	108.149	144.620
8.3865	800.022	60.286	945.463	205.727	739.737	108.766	145.441
8.4392	800.092	60.639	946.295	206.842	739.453	109.373	146.203
8.4923	800.211	61.072	947.237	208.097	739.139	110.080	147.026
8.5428	800.350	61.474	948.081	209.205	738.876	110.717	147.731
8.5965	799.784	61.192	948.368	209.775	738.592	110.720	148.583
8.6480	800.032	61.734	949.369	211.070	738.299	111.512	149.337
8.6980	800.171	62.217	950.301	212.346	737.954	112.260	150.129
8.7496	800.211	62.550	951.142	213.481	737.661	112.860	150.931
8.8034	799.903	62.526	951.594	214.217	737.377	113.090	151.691
8.8554	799.973	62.950	952.607	215.584	737.023	113.828	152.634
8.9045	799.983	63.274	953.371	216.662	736.709	114.403	153.388
8.9574	799.933	63.558	954.166	217.791	736.375	114.969	154.233
9.0054	799.874	63.853	954.885	218.864	736.020	115.524	155.011
9.0566	799.864	64.147	955.715	219.999	735.716	116.098	155.852
9.1082	799.883	64.521	956.677	221.315	735.362	116.786	156.793
9.1592	799.913	64.865	957.442	222.394	735.048	117.375	157.529
9.2129	799.943	65.219	958.374	223.650	734.724	118.029	158.431
9.2662	800.022	65.622	959.286	224.886	734.400	118.710	159.263
9.3144	800.122	66.127	960.294	226.299	733.995	119.518	160.172
9.3657	799.735	66.074	960.689	227.029	733.661	119.726	160.955
9.4169	799.814	66.498	961.807	228.491	733.316	120.495	161.993
9.4732	799.933	66.951	962.715	229.733	732.982	121.212	162.782
9.5239	799.983	67.365	963.648	231.030	732.618	121.920	163.665
9.5779	799.794	67.541	964.267	232.014	732.253	122.365	164.473
9.6265	799.725	67.846	965.133	233.255	731.878	122.983	165.408
9.6836	799.804	68.250	966.183	234.629	731.554	123.709	166.379
9.7364	799.844	68.522	966.978	235.657	731.321	124.234	167.134
9.7886	799.883	68.947	968.063	237.126	730.936	125.007	168.179
9.8395	799.874	69.271	968.809	238.207	730.602	125.583	168.936
9.8905	799.883	69.626	969.796	239.538	730.258	126.263	169.913
9.9437	799.943	70.039	970.674	240.771	729.904	126.950	170.731
9.9932	800.042	70.473	971.751	242.181	729.569	127.709	171.709
10.0442	800.171	70.997	972.887	243.713	729.174	128.569	172.716
10.0936	799.963	71.082	973.467	244.586	728.881	128.917	173.504
10.1452	799.953	71.427	974.546	246.019	728.526	129.624	174.593
10.1987	800.082	71.890	975.504	247.312	728.192	130.364	175.422
10.2474	800.151	72.263	976.529	248.641	727.888	131.056	176.378
10.2978	799.993	72.550	977.373	249.930	727.443	131.677	177.380
10.3499	799.993	72.915	978.303	251.225	727.078	132.351	178.310
10.4020	799.983	73.330	979.323	252.671	726.653	133.110	179.341
10.4542	800.012	73.674	980.179	253.840	726.339	133.729	180.167
10.5082	799.973	74.059	981.214	255.301	725.913	134.473	181.241
10.5585	799.963	74.414	982.099	256.550	725.549	135.126	182.136
10.6124	799.973	74.799	983.148	257.973	725.174	135.857	183.175
10.6681	799.963	75.173	984.070	259.280	724.789	136.542	184.107
10.7221	800.012	75.628	985.104	260.720	724.384	137.325	185.092
10.7731	800.132	76.173	986.264	262.305	723.959	138.217	186.132
10.8233	800.221	76.626	987.209	263.614	723.594	138.956	186.988
10.8777	799.764	76.605	987.934	264.775	723.159	139.329	188.170
10.9315	799.933	77.149	988.966	266.181	722.784	140.160	189.032
10.9824	800.052	77.663	990.204	267.815	722.389	141.047	190.152
11.0367	800.062	78.088	991.140	269.166	721.974	141.781	191.078
11.0875	799.864	78.284	991.941	270.362	721.579	142.310	192.077
11.1382	799.903	78.729	993.130	271.956	721.174	143.138	193.227
11.1882	799.883	79.084	993.991	273.192	720.799	143.787	194.108
11.2384	799.844	79.500	995.049	274.706	720.344	144.569	195.205
11.2902	799.844	79.895	996.159	276.210	719.949	145.333	196.315
11.3399	799.745	80.292	997.122	277.669	719.452	146.085	197.377
11.3905	799.725	80.657	998.161	279.094	719.068	146.803	198.436
11.4425	799.754	81.072	999.212	280.529	718.683	147.558	199.458
11.4975	799.784	81.517	1000.221	281.954	718.268	148.329	200.437
11.5489	799.903	82.031	1001.360	283.488	717.873	149.183	201.457
11.6032	799.923	82.435	1002.542	285.054	717.488	149.975	202.619
11.6537	799.695	82.562	1003.283	286.150	717.133	150.424	203.588
11.7027	799.893	83.135	1004.586	287.827	716.759	151.366	204.693
11.7572	800.052	83.729	1005.719	289.396	716.323	152.285	205.667
11.8113	800.022	84.064	1006.829	290.870	715.959	152.999	206.807
11.8646	799.883	84.381	1007.747	292.244	715.503	153.668	207.864
11.9179	799.963	84.814	1008.866	293.717	715.148	154.449	208.903
11.9683	799.963	85.250	1010.160	295.447	714.713	155.315	210.197
12.0156	799.973	85.665	1011.071	296.763	714.308	156.031	211.098
12.0674	799.983	86.120	1012.368	298.506	713.862	156.915	212.385
12.1193	799.953	86.506	1013.359	299.911	713.447	157.641	213.406
12.1691	800.003	86.960	1014.581	301.539	713.042	158.487	214.579
12.2194	800.032	87.416	1015.732	303.115	712.617	159.315	215.700
12.2701	800.141	87.940	1016.943	304.741	712.202	160.207	216.801
12.3207	800.251	88.515	1018.269	306.533	711.736	161.188	218.018
12.3753	800.032	88.732	1019.106	307.806	711.300	161.757	219.074
12.4286	799.923	89.079	1020.254	309.409	710.845	162.522	220.330
12.4802	800.122	89.713	1021.446	311.037	710.409	163.488	221.325
12.5280	800.231	90.288	1022.839	312.896	709.943	164.490	222.608
12.5763	800.132	90.634	1023.856	314.358	709.498	165.209	223.724
12.6338	799.903	90.882	1024.768	315.746	709.022	165.836	224.864
12.6913	799.973	91.407	1026.025	317.459	708.566	166.758	226.052
12.7418	799.943	91.813	1027.134	319.003	708.130	167.543	227.191
12.7955	799.933	92.289	1028.384	320.740	707.644	168.439	228.451
12.8460	799.903	92.705	1029.391	322.192	707.199	169.200	229.488
12.8958	799.893	93.241	1030.665	324.013	706.652	170.165	230.772
12.9466	799.933	93.747	1031.886	325.700	706.186	171.065	231.953
12.9969	800.003	94.242	1033.054	327.293	705.761	171.926	233.051
13.0470	800.032	94.829	1034.379	329.175	705.204	172.944	234.346
13.0971	799.933	95.155	1035.326	330.548	704.778	173.619	235.393
13.1485	799.764	95.492	1036.397	332.124	704.272	174.370	236.632
13.1987	799.784	95.988	1037.673	333.877	703.796	175.285	237.889
13.2506	799.784	96.484	1038.826	335.526	703.300	176.165	239.042
13.3018	799.705	96.881	1039.948	337.124	702.824	176.962	240.244
13.3533	799.695	97.347	1041.154	338.806	702.348	177.833	241.459
13.4048	799.715	97.812	1042.306	340.404	701.902	178.676	242.592
13.4562	799.754	98.267	1043.624	342.137	701.487	179.557	243.870
13.5120	799.824	98.792	1044.828	343.796	701.031	180.460	245.004
13.5614	799.943	99.347	1046.211	345.615	700.596	181.436	246.268
13.6116	800.072	99.922	1047.633	347.483	700.150	182.442	247.561
13.6645	800.151	100.457	1048.800	349.105	699.695	183.340	248.649
13.7166	799.903	100.654	1049.918	350.669	699.249	183.992	250.015
13.7701	799.983	101.159	1051.129	352.306	698.824	184.874	251.147
13.8174	800.072	101.694	1052.481	354.103	698.378	185.830	252.409
13.8680	800.032	102.090	1053.611	355.668	697.943	186.616	253.579
13.9206	800.032	102.586	1054.871	357.424	697.446	187.532	254.839
13.9777	800.032	103.062	1056.180	359.210	696.971	188.445	256.148
14.0269	800.032	103.497	1057.236	360.701	696.535	189.232	257.203
14.0775	800.082	104.043	1058.822	362.783	696.039	190.290	258.740
14.1300	800.092	104.519	1059.874	364.301	695.573	191.113	259.783
14.1786	800.181	105.074	1061.211	366.104	695.107	192.084	261.030
14.2331	800.290	105.700	1062.629	368.038	694.591	193.146	262.338
14.2826	800.270	106.115	1063.834	369.679	694.155	193.970	263.563
14.3318	800.022	106.414	1064.940	371.331	693.608	194.720	264.917
14.3825	800.102	106.969	1066.124	372.991	693.132	195.643	266.022
14.4335	800.062	107.487	1067.558	374.983	692.575	196.652	267.496
14.4852	799.973	107.883	1068.583	376.494	692.089	197.420	268.611
14.5338	799.963	108.350	1069.890	378.277	691.613	198.325	269.927
14.5900	799.953	108.897	1071.138	380.082	691.056	199.292	271.186
14.6409	799.933	109.363	1072.392	381.822	690.570	200.183	272.459
14.6944	799.903	109.900	1073.739	383.736	690.003	201.179	273.835
14.7443	799.933	110.446	1074.993	385.507	689.487	202.133	275.060
14.7972	799.993	111.053	1076.540	387.600	688.940	203.235	276.547
14.8493	800.042	111.619	1077.707	389.284	688.423	204.174	277.665
14.8973	799.854	111.947	1078.857	390.950	687.907	204.948	279.004
14.9534	799.735	112.456	1080.049	392.770	687.279	205.894	280.314
15.0046	799.774	113.002	1081.236	394.464	686.773	206.822	281.462
15.0558	799.725	113.499	1082.606	396.380	686.226	207.793	282.881
15.1080	799.745	113.964	1083.863	398.082	685.780	208.670	284.118
15.1630	799.745	114.450	1085.345	400.051	685.294	209.651	285.601
15.2157	799.774	114.987	1086.543	401.755	684.788	210.576	286.769
15.2650	799.824	115.492	1088.011	403.679	684.332	211.554	288.187
15.3155	799.874	116.038	1089.296	405.461	683.836	212.512	289.423
15.3683	799.963	116.583	1090.692	407.312	683.380	213.492	290.729
15.4203	800.082	117.188	1092.182	409.288	682.894	214.555	292.100
15.4722	800.191	117.814	1093.501	411.124	682.378	215.584	293.310
15.5249	800.003	118.111	1094.742	412.850	681.891	216.358	294.739
15.5774	799.963	118.558	1095.891	414.485	681.405	217.200	295.928
15.6280	800.082	119.132	1097.490	416.540	680.950	218.268	297.408
15.6819	800.092	119.638	1098.568	418.115	680.453	219.130	298.476
15.7341	800.042	120.095	1099.957	420.010	679.947	220.067	299.915
15.7847	800.012	120.592	1101.195	421.775	679.420	220.986	301.183
15.8356	800.052	121.098	1102.484	423.529	678.955	221.908	302.432
15.8878	800.052	121.695	1104.028	425.671	678.357	223.020	303.976
15.9365	800.092	122.211	1105.242	427.361	677.881	223.927	305.150
15.9891	800.132	122.818	1106.995	429.681	677.314	225.105	306.863
16.0398	800.191	123.343	1108.074	431.226	676.848	225.971	307.883
16.0926	800.320	124.039	1109.611	433.330	676.281	227.136	309.291
16.1440	800.161	124.427	1110.799	435.065	675.734	227.973	310.638
16.1969	800.052	124.804	1111.935	436.687	675.248	228.765	311.883
16.2489	800.141	125.491	1113.650	438.999	674.651	229.994	313.509
16.3044	800.132	125.947	1114.713	440.528	674.185	230.807	314.581
16.3541	800.112	126.484	1116.276	442.648	673.628	231.872	316.164
16.4063	800.102	126.990	1117.427	444.316	673.111	232.765	317.325
16.4605	800.092	127.497	1118.821	446.226	672.595	233.740	318.729
16.5123	800.062	128.004	1120.170	448.112	672.058	234.707	320.108
16.5642	800.072	128.581	1121.321	449.830	671.491	235.664	321.249
16.6149	800.112	129.157	1122.820	451.865	670.954	236.727	322.708
16.6663	800.141	129.663	1124.083	453.605	670.478	237.644	323.942
16.7172	800.251	130.350	1125.741	455.840	669.901	238.846	325.490
16.7659	800.221	130.867	1126.904	457.550	669.354	239.761	326.683
16.8123	799.893	131.076	1128.092	459.274	668.817	240.475	328.198
16.8662	800.042	131.782	1129.504	461.244	668.260	241.602	329.462
16.9153	800.062	132.267	1130.726	462.932	667.795	242.489	330.664
16.9680	800.003	132.775	1132.198	464.971	667.228	243.507	332.196
17.0193	799.993	133.292	1133.347	466.646	666.701	244.410	333.354
17.0712	799.953	133.789	1134.806	468.642	666.164	245.406	334.853
17.1257	799.993	134.355	1136.066	470.428	665.638	246.380	336.073
17.1751	800.003	134.851	1137.518	472.367	665.151	247.356	337.516
17.2278	800.092	135.406	1138.769	474.083	664.686	248.299	338.677
17.2771	800.161	135.972	1140.200	476.010	664.189	249.318	340.038
17.3273	800.280	136.668	1141.658	478.046	663.612	250.461	341.378
17.3806	800.300	137.174	1142.988	479.862	663.126	251.403	342.688
17.4289	800.012	137.433	1144.122	481.543	662.579	252.136	344.109
17.4793	800.112	137.968	1145.336	483.192	662.144	253.043	345.224
17.5309	800.151	138.595	1146.936	485.380	661.556	254.190	346.785
17.5823	800.112	139.072	1148.050	487.010	661.040	255.051	347.938
17.6314	800.092	139.548	1149.395	488.851	660.544	255.982	349.303
17.6823	800.082	140.105	1150.615	490.639	659.977	256.950	350.533
17.7328	800.082	140.591	1151.954	492.463	659.490	257.882	351.872
17.7851	800.072	141.108	1153.320	494.356	658.964	258.857	353.248
17.8378	800.102	141.675	1154.598	496.171	658.427	259.840	354.496
17.8875	800.181	142.291	1156.293	498.403	657.890	260.995	356.112
17.9367	800.231	142.837	1157.385	499.991	657.394	261.888	357.154
17.9897	800.360	143.533	1159.081	502.254	656.827	263.106	358.721
18.0433	800.290	144.000	1160.154	503.864	656.290	263.955	359.864
18.0937	799.993	144.229	1161.198	505.434	655.764	264.631	361.205
18.1444	800.112	144.895	1162.779	507.562	655.217	265.784	362.667
18.1959	800.122	145.401	1163.874	509.154	654.721	266.652	363.753
18.2484	800.052	145.939	1165.456	511.343	654.113	267.740	365.404
18.2969	800.022	146.406	1166.398	512.781	653.617	268.531	366.375
18.3488	799.963	146.883	1167.802	514.722	653.080	269.496	367.839
18.4051	800.032	147.459	1169.190	516.616	652.574	270.511	369.158
18.4589	800.022	147.965	1170.369	518.312	652.057	271.414	370.347
18.5122	800.062	148.582	1171.830	520.349	651.480	272.505	371.767
18.5613	800.112	149.128	1173.101	522.117	650.984	273.458	372.990
18.6143	800.221	149.835	1174.797	524.411	650.386	274.693	374.576
18.6664	800.092	150.222	1175.826	525.956	649.870	275.467	375.734
18.7180	799.933	150.590	1177.149	527.806	649.343	276.328	377.216
18.7699	800.012	151.226	1178.461	529.674	648.786	277.376	378.448
18.8181	799.953	151.703	1179.618	531.369	648.250	278.258	379.665
18.8697	799.913	152.271	1180.931	533.289	647.642	279.277	381.018
18.9223	799.893	152.748	1182.272	535.127	647.146	280.207	382.379
18.9774	799.973	153.354	1183.821	537.202	646.619	281.303	383.849
19.0299	800.003	153.880	1185.010	538.887	646.123	282.215	385.007
19.0815	799.993	154.407	1186.436	540.850	645.586	283.221	386.443
19.1360	800.102	155.052	1187.782	542.732	645.049	284.279	387.680
19.1871	800.171	155.608	1189.224	544.661	644.563	285.292	389.053
19.2391	800.261	156.214	1190.558	546.512	644.047	286.313	390.298
19.2925	800.151	156.621	1191.747	548.216	643.530	287.153	391.595
19.3451	800.062	157.048	1192.926	549.912	643.014	288.003	392.864
19.3957	800.112	157.594	1194.282	551.764	642.518	288.984	394.170
19.4458	800.112	158.111	1195.665	553.664	642.001	289.962	395.554
19.4990	800.102	158.647	1196.762	555.308	641.454	290.868	396.661
19.5498	800.102	159.184	1198.184	557.266	640.918	291.878	398.082
19.6042	800.092	159.711	1199.393	559.012	640.381	292.812	399.301
19.6543	800.092	160.238	1200.723	560.869	639.854	293.781	400.631
19.7062	800.112	160.804	1202.122	562.815	639.307	294.808	402.011
19.7549	800.141	161.391	1203.394	564.643	638.750	295.808	403.252
19.8081	800.181	161.968	1204.923	566.709	638.214	296.881	404.742
19.8576	800.290	162.573	1206.205	568.488	637.717	297.878	405.915
19.9093	800.141	162.981	1207.520	570.359	637.160	298.774	407.378
19.9610	800.022	163.389	1208.377	571.744	636.634	299.507	408.355
20.0127	800.082	163.975	1209.881	573.774	636.107	300.574	409.799
20.0644	800.072	164.501	1211.161	575.591	635.571	301.531	411.089
20.1160	800.032	164.958	1212.275	577.200	635.074	302.372	412.242
20.1677	800.003	165.516	1213.908	579.422	634.487	303.484	413.906
20.2194	799.993	165.972	1214.610	580.589	634.021	304.177	414.618
20.2711	799.983	166.488	1216.214	582.720	633.494	305.232	416.232
20.3227	799.983	167.015	1217.284	584.316	632.968	306.115	417.302
20.3744	799.993	167.521	1218.483	586.011	632.472	307.018	418.490
20.4261	800.052	168.188	1219.954	588.090	631.864	308.155	419.902
20.4778	800.141	168.713	1221.213	589.784	631.429	309.070	421.071
20.5294	800.072	169.221	1222.671	591.820	630.851	310.087	422.599
20.5811	799.854	169.519	1223.393	593.059	630.335	310.699	423.540
20.6328	799.893	170.156	1225.047	595.309	629.737	311.874	425.153
20.6845	799.864	170.673	1226.163	596.973	629.191	312.773	426.300
20.7361	799.794	171.090	1227.179	598.474	628.704	313.551	427.385
20.7878	799.834	171.605	1228.646	600.417	628.228	314.543	428.812
20.8395	799.854	172.040	1229.642	601.829	627.813	315.303	429.788
20.8912	799.854	172.678	1231.229	604.054	627.175	316.470	431.376
20.9428	799.933	173.193	1232.311	605.572	626.740	317.319	432.378
20.9945	800.012	173.708	1233.660	607.356	626.304	318.257	433.648
21.0462	800.082	174.254	1234.982	609.154	625.828	319.220	434.900
21.0979	800.151	174.799	1236.243	610.890	625.352	320.163	436.091
21.1496	800.132	175.286	1237.442	612.596	624.846	321.056	437.310
21.2012	800.022	175.693	1238.624	614.294	624.330	321.893	438.601
21.2529	800.072	176.269	1239.948	616.145	623.803	322.894	439.876
21.3046	800.102	176.734	1241.101	617.734	623.367	323.734	440.999
21.3563	800.082	177.261	1242.500	619.680	622.821	324.734	442.418
21.4079	800.062	177.748	1243.422	621.108	622.314	325.534	443.360
21.4596	800.062	178.224	1244.896	623.058	621.838	326.502	444.834
21.5113	800.032	178.721	1245.804	624.492	621.312	327.311	445.772
21.5630	800.072	179.236	1247.136	626.300	620.836	328.258	447.064
21.6146	800.102	179.803	1248.337	628.038	620.299	329.215	448.235
21.6663	800.161	180.318	1249.418	629.575	619.843	330.070	449.257
21.7180	800.231	180.955	1251.054	631.778	619.276	331.229	450.824
21.7697	800.231	181.420	1251.865	633.055	618.810	331.965	451.634
21.8213	799.993	181.719	1253.101	634.827	618.274	332.755	453.108
21.8730	800.032	182.214	1254.022	636.204	617.818	333.544	453.989
21.9247	800.052	182.781	1255.364	638.093	617.271	334.552	455.312
21.9764	800.012	183.238	1256.452	639.678	616.775	335.384	456.440
22.0281	799.963	183.674	1257.500	641.211	616.289	336.186	457.537
22.0797	799.973	184.221	1258.943	643.191	615.752	337.211	458.971
22.1314	799.963	184.656	1259.747	644.441	615.306	337.918	459.784
22.1831	799.933	185.234	1261.220	646.521	614.699	338.997	461.287
22.2348	799.953	185.700	1262.168	647.915	614.253	339.771	462.215
22.2864	799.963	186.196	1263.236	649.469	613.767	340.620	463.273
22.3381	800.003	186.742	1264.464	651.203	613.261	341.562	464.461
22.3898	799.993	187.177	1265.450	652.635	612.815	342.330	465.457
22.4415	799.814	187.586	1266.734	654.506	612.228	343.226	466.920
22.4931	799.764	187.992	1267.501	655.729	611.772	343.904	467.736
22.5448	799.764	188.559	1268.945	657.740	611.205	344.953	469.180
22.5965	799.745	188.995	1269.957	659.208	610.749	345.733	470.212
22.6482	799.764	189.461	1271.095	660.791	610.304	346.571	471.331
22.6998	799.764	189.967	1272.240	662.443	609.797	347.459	472.476
22.7515	799.784	190.372	1273.287	663.874	609.412	348.206	473.503
22.8032	799.854	190.958	1274.600	665.704	608.896	349.206	474.746
22.8549	799.923	191.351	1275.415	666.843	608.572	349.849	475.492
22.9066	800.012	191.906	1277.021	668.915	608.106	350.909	477.009
22.9582	800.112	192.451	1278.067	670.406	607.661	351.770	477.955
23.0099	800.151	192.947	1279.139	671.934	607.205	352.609	478.987
23.0616	799.983	193.244	1280.102	673.363	606.739	353.283	480.119
23.1133	800.032	193.678	1281.107	674.753	606.354	354.036	481.075
23.1649	800.082	194.244	1282.401	676.563	605.838	355.017	482.319
23.2166	800.062	194.670	1283.435	678.043	605.392	355.794	483.373
23.2683	800.062	195.146	1284.515	679.599	604.916	356.630	484.453
23.3200	800.003	195.542	1285.390	680.929	604.460	357.338	485.387
23.3716	799.993	196.008	1286.703	682.719	603.984	358.245	486.710
23.4233	800.012	196.464	1287.610	684.061	603.549	358.996	487.597
23.4750	800.062	196.989	1288.877	685.804	603.073	359.927	488.815
23.5267	800.082	197.495	1289.838	687.251	602.587	360.747	489.756
23.5783	800.132	197.990	1290.871	688.729	602.141	361.570	490.739
23.6300	800.211	198.535	1292.292	690.616	601.675	362.562	492.081
23.6817	800.221	198.991	1293.021	691.791	601.230	363.258	492.800
23.7334	800.022	199.248	1294.218	693.444	600.774	363.980	494.195
23.7850	800.062	199.703	1294.930	694.571	600.359	364.659	494.868
23.8367	800.102	200.229	1296.390	696.517	599.873	365.658	496.288
23.8884	800.072	200.675	1297.231	697.834	599.397	366.395	497.159
23.9401	800.052	201.091	1298.181	699.220	598.961	367.134	498.129
23.9918	800.042	201.587	1299.455	701.000	598.455	368.058	499.413
24.0434	800.032	201.952	1300.082	702.001	598.080	368.635	500.049
24.0951	800.032	202.489	1301.562	704.019	597.544	369.665	501.530
24.1468	800.092	202.923	1302.255	705.086	597.169	370.311	502.163
24.1985	800.151	203.398	1303.490	706.736	596.754	371.177	503.339
24.2501	800.221	203.963	1304.519	708.261	596.258	372.063	504.298
24.3018	800.270	204.398	1305.554	709.681	595.873	372.826	505.284
24.3535	800.052	204.696	1306.663	711.307	595.356	373.566	506.611
24.4052	800.072	205.111	1307.379	712.418	594.961	374.213	507.307
24.4568	800.102	205.667	1308.732	714.297	594.435	375.210	508.630
24.5085	800.112	206.062	1309.449	715.399	594.050	375.841	509.337
24.5602	800.052	206.468	1310.608	717.024	593.584	376.654	510.556
24.6119	800.072	206.923	1311.489	718.341	593.149	377.396	511.417
24.6635	800.062	207.309	1312.367	719.613	592.754	378.077	512.305
24.7152	800.112	207.925	1313.800	721.614	592.186	379.155	513.688
24.7669	800.122	208.259	1314.509	722.647	591.862	379.722	514.387
24.8186	800.122	208.776	1315.675	724.329	591.346	380.627	515.554
24.8703	800.211	209.260	1316.588	725.637	590.951	381.386	516.377
24.9219	800.280	209.775	1317.707	727.201	590.505	382.250	517.426
24.9736	800.171	210.091	1318.432	728.352	590.080	382.845	518.261
25.0253	800.082	210.407	1319.289	729.614	589.675	383.476	519.207
25.0770	800.122	210.933	1320.457	731.268	589.189	384.378	520.335
25.1286	800.082	211.268	1321.232	732.418	588.814	384.984	521.150
25.1803	800.082	211.703	1322.229	733.850	588.379	385.752	522.147
25.2320	800.062	212.139	1323.176	735.253	587.923	386.510	523.114
25.2837	800.062	212.595	1324.198	736.731	587.467	387.307	524.136
25.3353	800.072	213.010	1325.044	737.982	587.062	388.001	524.972
25.3870	800.072	213.506	1326.048	739.482	586.566	388.831	525.976
25.4387	800.082	213.921	1326.764	740.603	586.161	389.482	526.682
25.4904	800.132	214.416	1327.941	742.225	585.715	390.353	527.809
25.5420	800.201	214.972	1329.023	743.793	585.229	391.246	528.822
25.5937	800.082	215.238	1329.633	744.788	584.844	391.755	529.551
25.6454	800.012	215.674	1330.965	746.627	584.338	392.659	530.953
25.6971	800.032	216.110	1331.571	747.648	583.923	393.289	531.538
25.7488	800.032	216.504	1332.646	749.118	583.528	394.042	532.613
25.8004	800.003	216.920	1333.395	750.312	583.082	394.718	533.392
25.8521	799.983	217.275	1334.264	751.556	582.708	395.369	534.281
25.9038	799.983	217.700	1335.221	752.939	582.282	396.113	535.239
25.9555	800.032	218.074	1336.031	754.073	581.958	396.740	535.998
26.0071	800.072	218.539	1337.276	755.743	581.533	397.607	537.204
26.0588	800.132	218.953	1337.868	756.690	581.178	398.199	537.737
26.1105	800.171	219.438	1339.221	758.488	580.733	399.122	539.050
26.1622	800.231	219.893	1339.894	759.556	580.338	399.781	539.663
26.2138	800.112	220.149	1340.596	760.633	579.963	400.310	540.484
26.2655	800.082	220.605	1341.859	762.382	579.477	401.197	541.777
26.3172	800.122	220.979	1342.312	763.169	579.143	401.709	542.191
26.3689	800.112	221.414	1343.397	764.699	578.697	402.509	543.285
26.4205	800.052	221.699	1343.929	765.576	578.353	402.991	543.876
26.4722	800.052	222.155	1345.019	767.122	577.897	403.811	544.967
26.5239	800.072	222.560	1345.780	768.268	577.512	404.462	545.708
26.5756	800.052	222.965	1346.805	769.718	577.087	405.216	546.753
26.6273	800.072	223.451	1347.771	771.150	576.621	406.017	547.699
26.6789	800.141	223.854	1348.396	772.109	576.287	406.606	548.255
26.7306	800.191	224.370	1349.610	773.789	575.821	407.509	549.419
26.7823	800.211	224.673	1350.072	774.534	575.538	407.960	549.861
26.8340	800.062	224.960	1351.166	776.064	575.102	408.661	551.104
26.8856	800.122	225.425	1351.872	777.175	574.697	409.341	551.751
26.9373	800.112	225.769	1352.425	778.082	574.343	409.873	552.313
26.9890	800.092	226.175	1353.504	779.586	573.917	410.645	553.412
27.0407	800.102	226.569	1354.225	780.692	573.533	411.277	554.123
27.0923	800.082	226.995	1355.121	782.034	573.087	412.008	555.039
27.1440	800.052	227.350	1355.840	783.138	572.702	412.613	555.788
27.1957	800.012	227.715	1356.726	784.429	572.297	413.287	556.714
27.2474	800.062	228.130	1357.453	785.520	571.932	413.926	557.391
27.2990	800.092	228.544	1358.405	786.857	571.548	414.649	558.313
27.3507	800.132	228.969	1359.091	787.928	571.163	415.288	558.959
27.4024	800.161	229.393	1360.026	789.258	570.768	416.015	559.864
27.4541	800.082	229.739	1360.822	790.480	570.343	416.653	560.740
27.5057	800.032	230.044	1361.510	791.522	569.988	417.203	561.478
27.5574	800.052	230.520	1362.484	792.952	569.532	417.997	562.432
27.6091	800.062	230.935	1363.119	793.991	569.127	418.620	563.057
27.6608	800.032	231.341	1364.218	795.526	568.692	419.402	564.185
27.7125	799.933	231.667	1364.548	796.282	568.266	419.872	564.615
27.7641	799.883	231.971	1365.323	797.411	567.912	420.451	565.440
27.8158	799.874	232.336	1366.109	798.571	567.537	421.081	566.235
27.8675	799.913	232.751	1366.792	799.630	567.163	421.710	566.879
27.9192	799.933	233.236	1368.040	801.343	566.697	422.605	568.107
27.9708	799.963	233.570	1368.356	801.963	566.393	423.034	568.394
28.0225	800.003	234.025	1369.470	803.493	565.978	423.847	569.468
28.0742	800.003	234.379	1369.890	804.267	565.623	424.342	569.888
28.1259	799.854	234.595	1370.568	805.309	565.259	424.833	570.714
28.1775	799.864	235.030	1371.483	806.650	564.833	425.570	571.620
28.2292	799.864	235.364	1371.804	807.305	564.499	426.011	571.941
28.2809	799.844	235.851	1373.025	809.032	563.993	426.911	573.182
28.3326	799.824	236.135	1373.229	809.540	563.689	427.270	573.405
28.3842	799.794	236.510	1374.368	811.084	563.284	428.035	574.574
28.4359	799.774	236.855	1374.880	811.961	562.919	428.557	575.106
28.4876	799.844	237.228	1375.629	813.013	562.616	429.156	575.785
28.5393	799.854	237.623	1376.519	814.288	562.231	429.845	576.665
28.5910	799.844	237.876	1376.914	814.947	561.967	430.233	577.071
28.6426	799.874	238.331	1377.753	816.211	561.542	430.958	577.880
28.6943	799.874	238.635	1378.264	817.026	561.238	431.432	578.391
28.7460	799.893	239.060	1379.319	818.485	560.833	432.202	579.425
28.7977	799.953	239.444	1379.953	819.444	560.509	432.777	580.000
28.8493	799.893	239.708	1380.696	820.511	560.185	433.309	580.803
28.9010	799.864	240.084	1381.292	821.512	559.780	433.893	581.428
28.9527	799.854	240.367	1381.812	822.326	559.486	434.354	581.959
29.0044	799.874	240.843	1382.857	823.827	559.031	435.171	582.984
29.0560	799.814	241.067	1383.124	824.377	558.747	435.504	583.310
29.1077	799.864	241.522	1383.981	825.639	558.342	436.227	584.117
29.1594	799.864	241.876	1384.612	826.625	557.988	436.792	584.749
29.2111	799.883	242.230	1385.396	827.742	557.653	437.401	585.512
29.2627	799.933	242.654	1386.007	828.728	557.279	438.012	586.074
29.3144	800.012	243.048	1386.953	829.988	556.965	438.695	586.941
29.3661	800.022	243.453	1387.615	831.045	556.570	439.317	587.592
29.4178	799.814	243.558	1387.950	831.694	556.256	439.603	588.136
29.4695	799.844	243.973	1388.841	832.970	555.871	440.305	588.998
29.5211	799.913	244.336	1389.198	833.621	555.577	440.764	589.285
29.5728	799.933	244.751	1390.316	835.134	555.182	441.545	590.383
29.6245	799.814	244.956	1390.482	835.623	554.858	441.845	590.668
29.6762	799.824	245.269	1391.160	836.606	554.555	442.382	591.337
29.7278	799.794	245.645	1391.798	837.649	554.149	442.979	592.004
29.7795	799.814	245.938	1392.377	838.501	553.876	443.459	592.563
29.8312	799.874	246.372	1393.207	839.706	553.501	444.150	593.334
29.8829	799.893	246.676	1393.598	840.380	553.218	444.577	593.705
29.9345	799.953	247.140	1394.702	841.890	552.813	445.390	594.749
29.9862	800.042	247.462	1394.763	842.183	552.580	445.703	594.721
30.0379	799.953	247.667	1395.305	843.019	552.286	446.118	595.352
30.0896	799.893	247.972	1396.061	844.139	551.922	446.694	596.167
30.1412	799.864	248.236	1396.435	844.807	551.628	447.093	596.571
30.1929	799.864	248.600	1397.418	846.154	551.263	447.785	597.554
30.2446	799.844	248.854	1397.693	846.704	550.990	448.137	597.850
30.2963	799.824	249.249	1398.587	848.012	550.575	448.837	598.763
30.3479	799.784	249.503	1398.959	848.678	550.281	449.228	599.174
30.3996	799.754	249.828	1399.654	849.728	549.926	449.795	599.900
30.4513	799.764	250.192	1400.362	850.790	549.572	450.392	600.598
30.5030	799.784	250.465	1400.631	851.312	549.319	450.748	600.847
30.5547	799.814	250.900	1401.592	852.678	548.914	451.493	601.778
30.6063	799.893	251.263	1401.997	853.367	548.630	451.964	602.103
30.6580	799.973	251.778	1402.951	854.756	548.195	452.771	602.978
30.7097	799.874	251.983	1403.266	855.375	547.891	453.113	603.393
30.7614	799.764	252.157	1403.583	855.976	547.607	453.430	603.819
30.8130	799.834	252.561	1404.248	856.974	547.273	454.032	604.414
30.8647	799.844	252.834	1404.433	857.423	547.010	454.364	604.589
30.9164	799.764	253.129	1405.389	858.754	546.635	455.004	605.625
30.9681	799.735	253.373	1405.793	859.432	546.362	455.392	606.059
31.0197	799.705	253.657	1406.392	860.344	546.048	455.886	606.687
31.0714	799.705	253.951	1406.796	861.042	545.754	456.315	607.092
31.1231	799.735	254.244	1407.308	861.817	545.491	456.768	607.573
31.1748	799.754	254.547	1407.886	862.679	545.207	457.258	608.132
31.2264	799.745	254.811	1408.368	863.434	544.934	457.685	608.623
31.2781	799.824	255.245	1409.158	864.579	544.579	458.356	609.334
31.3298	799.854	255.507	1409.703	865.356	544.347	458.790	609.849
31.3815	799.834	255.822	1410.209	866.197	544.012	459.280	610.375
31.4332	799.774	256.025	1410.376	866.627	543.749	459.559	610.602
31.4848	799.794	256.410	1411.502	868.118	543.384	460.312	611.708
31.5365	799.784	256.673	1411.548	868.437	543.111	460.595	611.764
31.5882	799.764	256.957	1412.165	869.358	542.807	461.091	612.401
31.6399	799.754	257.271	1412.442	869.958	542.483	461.500	612.687
31.6915	799.745	257.474	1412.962	870.692	542.270	461.880	613.218
31.7432	799.754	257.818	1413.733	871.797	541.936	462.478	613.979
31.7949	799.784	258.091	1413.904	872.210	541.693	462.797	614.119
31.8466	799.814	258.344	1413.339	871.869	541.470	462.852	613.525
